IAD1 # Must be first four characters

1.365  # Index of refraction of the sample 
       # (Ethanol at .632, C2H5OH Refractiveinfoindex Kedenburg et al. 2012)
1.5875 # Index of refraction of the top and bottom slides 
       # (C8H8 - Polystyrene at .633um, PS - Sultanova et al. 2009:n 0.437-1.05um, refractive index.info) 
2.0    # [mm] Thickness of sample
1.075  # [mm] Thickness of slides (one single polystyrene petri dish)
6.5    # [mm] Diameter of illumination beam 
0.98   # Reflectance of the calibration standard

1 # Number of spheres used during each measurement

# Properties of sphere used for reflectance measurements 
203.2  # [mm] Sphere Diameter (8 in * 25.4 mm/in) 
44.45  # [mm] Sample Port Diameter 
6.3    # [mm] Entrance Port Diameter 
1.00   # [mm] Detector Port Diameter 
0.97   # Reflectance of the sphere wall

# Properties of sphere used for transmittance measurements 
203.2  # [mm] Sphere Diameter (8 in * 25.4 mm/in) 
44.45  # [mm] Sample Port Diameter 
0.00   # [mm] Third Port Diameter 
1.00   # [mm] Detector Port Diameter 
0.97   # Reflectance of the sphere wall

 L 	   r    	   t     	   w    	    W   
365	0.197135	0.0021171	0.944857	0.944857
366	0.200921	0.0000000	0.945894	0.945894
367	0.268724	0.0143392	0.946896	0.946896
368	0.275531	0.0000000	0.947864	0.947864
369	0.208746	0.0000000	0.948799	0.948799
370	0.237252	0.0000000	0.949702	0.949702
371	0.237674	0.0026150	0.950574	0.950574
372	0.325297	0.0000000	0.951416	0.951416
373	0.314788	0.0000000	0.952230	0.952230
374	0.252130	0.0000000	0.953015	0.953015
375	0.324893	0.0037437	0.953774	0.953774
376	0.319886	0.0112613	0.954506	0.954506
377	0.343544	0.0022156	0.955212	0.955212
378	0.388425	0.0075914	0.955894	0.955894
379	0.363270	0.0184489	0.956553	0.956553
380	0.377576	0.0064412	0.957188	0.957188
381	0.430792	0.0000000	0.957802	0.957802
382	0.352260	0.0040380	0.958394	0.958394
383	0.429812	0.0079118	0.958965	0.958965
384	0.432500	0.0181962	0.959516	0.959516
385	0.435556	0.0123054	0.960048	0.960048
386	0.420920	0.0108277	0.960561	0.960561
387	0.422952	0.0128814	0.961057	0.961057
388	0.461346	0.0127082	0.961535	0.961535
389	0.487076	0.0280456	0.961996	0.961996
390	0.487114	0.0178250	0.962441	0.962441
391	0.480701	0.0370370	0.962871	0.962871
392	0.511257	0.0307121	0.963286	0.963286
393	0.522467	0.0383300	0.963686	0.963686
394	0.565555	0.0421697	0.964072	0.964072
395	0.567460	0.0481431	0.964445	0.964445
396	0.559048	0.0656741	0.964805	0.964805
397	0.567589	0.0498428	0.965153	0.965153
398	0.592101	0.0579304	0.965488	0.965488
399	0.587821	0.0641256	0.965812	0.965812
400	0.582273	0.0536251	0.966126	0.966126
401	0.609335	0.0827343	0.966428	0.966428
402	0.575232	0.0819823	0.966720	0.966720
403	0.569304	0.0743971	0.967003	0.967003
404	0.607303	0.0869565	0.967276	0.967276
405	0.608898	0.0615531	0.967540	0.967540
406	0.596338	0.0817130	0.967795	0.967795
407	0.605529	0.0965206	0.968042	0.968042
408	0.601510	0.0831589	0.968280	0.968280
409	0.654660	0.0964559	0.968512	0.968512
410	0.642120	0.109296	0.968735	0.968735
411	0.665480	0.104488	0.968952	0.968952
412	0.656780	0.118208	0.969162	0.969162
413	0.665896	0.131268	0.969365	0.969365
414	0.667379	0.123171	0.969562	0.969562
415	0.682023	0.166215	0.969754	0.969754
416	0.699360	0.163521	0.969939	0.969939
417	0.673533	0.162212	0.970119	0.970119
418	0.676662	0.181316	0.970294	0.970294
419	0.713912	0.176201	0.970464	0.970464
420	0.725754	0.181224	0.970629	0.970629
421	0.695022	0.192822	0.970789	0.970789
422	0.731178	0.199351	0.970945	0.970945
423	0.747407	0.189954	0.971097	0.971097
424	0.737555	0.199156	0.971245	0.971245
425	0.738548	0.203944	0.971389	0.971389
426	0.749359	0.194992	0.971529	0.971529
427	0.752675	0.190060	0.971666	0.971666
428	0.752649	0.214499	0.971800	0.971800
429	0.719075	0.203925	0.971930	0.971930
430	0.725056	0.220208	0.972057	0.972057
431	0.747153	0.219646	0.972182	0.972182
432	0.745357	0.217877	0.972303	0.972303
433	0.754316	0.219977	0.972422	0.972422
434	0.724811	0.229436	0.972539	0.972539
435	0.734488	0.224212	0.972653	0.972653
436	0.759800	0.212549	0.972765	0.972765
437	0.721017	0.209389	0.972874	0.972874
438	0.763851	0.230977	0.972982	0.972982
439	0.749348	0.224233	0.973087	0.973087
440	0.741352	0.226252	0.973190	0.973190
441	0.752123	0.218948	0.973292	0.973292
442	0.737603	0.228905	0.973392	0.973392
443	0.727666	0.225214	0.973490	0.973490
444	0.731871	0.236104	0.973587	0.973587
445	0.747749	0.219275	0.973682	0.973682
446	0.740163	0.220981	0.973776	0.973776
447	0.752466	0.233621	0.973868	0.973868
448	0.767756	0.230152	0.973958	0.973958
449	0.725779	0.233873	0.974048	0.974048
450	0.741738	0.238800	0.974136	0.974136
451	0.740572	0.223665	0.974223	0.974223
452	0.743615	0.243551	0.974309	0.974309
453	0.725550	0.245796	0.974394	0.974394
454	0.750116	0.248947	0.974478	0.974478
455	0.736557	0.243588	0.974560	0.974560
456	0.737956	0.242049	0.974642	0.974642
457	0.725928	0.238158	0.974722	0.974722
458	0.771634	0.245520	0.974802	0.974802
459	0.739058	0.233053	0.974881	0.974881
460	0.724624	0.245051	0.974959	0.974959
461	0.744286	0.226355	0.975036	0.975036
462	0.754313	0.230458	0.975112	0.975112
463	0.726589	0.256038	0.975187	0.975187
464	0.753540	0.250647	0.975261	0.975261
465	0.733255	0.233565	0.975335	0.975335
466	0.738317	0.246417	0.975407	0.975407
467	0.741655	0.240339	0.975479	0.975479
468	0.739289	0.256114	0.975551	0.975551
469	0.751304	0.258233	0.975621	0.975621
470	0.748057	0.253079	0.975691	0.975691
471	0.735861	0.258552	0.975760	0.975760
472	0.760475	0.236264	0.975828	0.975828
473	0.721866	0.272267	0.975895	0.975895
474	0.752762	0.257749	0.975962	0.975962
475	0.723558	0.258239	0.976028	0.976028
476	0.735424	0.249315	0.976093	0.976093
477	0.755699	0.250639	0.976157	0.976157
478	0.740703	0.269128	0.976221	0.976221
479	0.746536	0.265013	0.976284	0.976284
480	0.739572	0.240778	0.976346	0.976346
481	0.725704	0.251312	0.976407	0.976407
482	0.732894	0.248075	0.976468	0.976468
483	0.747678	0.258405	0.976528	0.976528
484	0.739534	0.251901	0.976587	0.976587
485	0.729382	0.254604	0.976646	0.976646
486	0.718511	0.265232	0.976703	0.976703
487	0.731838	0.258371	0.976760	0.976760
488	0.715955	0.261219	0.976816	0.976816
489	0.742210	0.250601	0.976872	0.976872
490	0.737060	0.262107	0.976926	0.976926
491	0.725081	0.261637	0.976980	0.976980
492	0.743011	0.268299	0.977033	0.977033
493	0.721033	0.270923	0.977086	0.977086
494	0.718242	0.260657	0.977137	0.977137
495	0.720814	0.247530	0.977188	0.977188
496	0.745752	0.258425	0.977238	0.977238
497	0.724704	0.255185	0.977287	0.977287
498	0.724734	0.268535	0.977335	0.977335
499	0.727335	0.256335	0.977382	0.977382
500	0.731730	0.265756	0.977429	0.977429
501	0.743414	0.265675	0.977475	0.977475
502	0.743504	0.259304	0.977520	0.977520
503	0.739204	0.257701	0.977564	0.977564
504	0.722843	0.268773	0.977607	0.977607
505	0.728207	0.271495	0.977649	0.977649
506	0.710533	0.275039	0.977691	0.977691
507	0.717751	0.267075	0.977732	0.977732
508	0.741499	0.266136	0.977772	0.977772
509	0.734563	0.271594	0.977811	0.977811
510	0.723235	0.257194	0.977849	0.977849
511	0.727357	0.272529	0.977886	0.977886
512	0.712618	0.260083	0.977923	0.977923
513	0.730038	0.269943	0.977959	0.977959
514	0.726743	0.272530	0.977993	0.977993
515	0.727028	0.272747	0.978027	0.978027
516	0.726581	0.276967	0.978060	0.978060
517	0.723034	0.259865	0.978093	0.978093
518	0.732543	0.269593	0.978124	0.978124
519	0.728362	0.290398	0.978155	0.978155
520	0.722915	0.276367	0.978184	0.978184
521	0.731232	0.260813	0.978213	0.978213
522	0.720131	0.285053	0.978241	0.978241
523	0.723523	0.277121	0.978269	0.978269
524	0.719978	0.275654	0.978295	0.978295
525	0.718853	0.275546	0.978321	0.978321
526	0.729990	0.274463	0.978345	0.978345
527	0.708305	0.267117	0.978369	0.978369
528	0.726343	0.275379	0.978393	0.978393
529	0.722782	0.291631	0.978415	0.978415
530	0.731671	0.271779	0.978436	0.978436
531	0.730613	0.277418	0.978457	0.978457
532	0.735462	0.289680	0.978477	0.978477
533	0.720948	0.278353	0.978496	0.978496
534	0.721915	0.283237	0.978515	0.978515
535	0.722046	0.281176	0.978533	0.978533
536	0.722832	0.268574	0.978550	0.978550
537	0.726316	0.283611	0.978566	0.978566
538	0.715939	0.291090	0.978581	0.978581
539	0.717999	0.282497	0.978596	0.978596
540	0.730855	0.284056	0.978610	0.978610
541	0.733782	0.287591	0.978623	0.978623
542	0.714672	0.284610	0.978636	0.978636
543	0.717770	0.283716	0.978648	0.978648
544	0.713260	0.288057	0.978660	0.978660
545	0.722463	0.272769	0.978670	0.978670
546	0.711598	0.295962	0.978680	0.978680
547	0.702262	0.284918	0.978690	0.978690
548	0.707226	0.286780	0.978699	0.978699
549	0.708822	0.283745	0.978707	0.978707
550	0.714919	0.284172	0.978714	0.978714
551	0.706128	0.300143	0.978721	0.978721
552	0.717094	0.298262	0.978728	0.978728
553	0.714434	0.297332	0.978734	0.978734
554	0.698217	0.284126	0.978739	0.978739
555	0.710545	0.298814	0.978744	0.978744
556	0.717496	0.287899	0.978749	0.978749
557	0.707479	0.290452	0.978752	0.978752
558	0.713261	0.298555	0.978756	0.978756
559	0.716017	0.284144	0.978759	0.978759
560	0.708803	0.278180	0.978761	0.978761
561	0.710594	0.293370	0.978763	0.978763
562	0.720707	0.292279	0.978765	0.978765
563	0.712112	0.304140	0.978766	0.978766
564	0.711120	0.296358	0.978767	0.978767
565	0.721804	0.285537	0.978768	0.978768
566	0.710477	0.286959	0.978768	0.978768
567	0.717871	0.269602	0.978768	0.978768
568	0.702208	0.288470	0.978767	0.978767
569	0.709854	0.293144	0.978766	0.978766
570	0.713070	0.287423	0.978765	0.978765
571	0.700231	0.298787	0.978764	0.978764
572	0.703679	0.285425	0.978762	0.978762
573	0.718013	0.303719	0.978760	0.978760
574	0.711922	0.290576	0.978758	0.978758
575	0.693523	0.300607	0.978756	0.978756
576	0.709745	0.287182	0.978753	0.978753
577	0.699655	0.307332	0.978750	0.978750
578	0.705066	0.285545	0.978747	0.978747
579	0.722381	0.284511	0.978744	0.978744
580	0.703830	0.283442	0.978741	0.978741
581	0.709552	0.297950	0.978737	0.978737
582	0.699671	0.297097	0.978734	0.978734
583	0.696531	0.292497	0.978730	0.978730
584	0.694724	0.297601	0.978726	0.978726
585	0.712889	0.300345	0.978723	0.978723
586	0.702884	0.299928	0.978719	0.978719
587	0.705856	0.298010	0.978715	0.978715
588	0.694491	0.302187	0.978711	0.978711
589	0.702633	0.309545	0.978707	0.978707
590	0.688591	0.286321	0.978703	0.978703
591	0.704743	0.296536	0.978698	0.978698
592	0.717755	0.308179	0.978694	0.978694
593	0.707150	0.311760	0.978690	0.978690
594	0.701997	0.293891	0.978686	0.978686
595	0.700672	0.310877	0.978682	0.978682
596	0.705535	0.304151	0.978678	0.978678
597	0.702206	0.294838	0.978674	0.978674
598	0.715661	0.312848	0.978671	0.978671
599	0.696133	0.317916	0.978667	0.978667
600	0.701688	0.302462	0.978663	0.978663
601	0.698208	0.298653	0.978659	0.978659
602	0.717305	0.292270	0.978656	0.978656
603	0.706398	0.285238	0.978653	0.978653
604	0.693349	0.290984	0.978649	0.978649
605	0.685215	0.318134	0.978646	0.978646
606	0.693982	0.297272	0.978643	0.978643
607	0.709499	0.287883	0.978640	0.978640
608	0.687993	0.312185	0.978637	0.978637
609	0.702109	0.305268	0.978635	0.978635
610	0.700773	0.313959	0.978632	0.978632
611	0.694131	0.302363	0.978630	0.978630
612	0.700423	0.296787	0.978628	0.978628
613	0.699499	0.316510	0.978626	0.978626
614	0.702972	0.298851	0.978624	0.978624
615	0.709130	0.308154	0.978622	0.978622
616	0.701905	0.290045	0.978620	0.978620
617	0.699134	0.307495	0.978619	0.978619
618	0.697401	0.304216	0.978618	0.978618
619	0.692167	0.315433	0.978617	0.978617
620	0.687407	0.313680	0.978616	0.978616
621	0.702447	0.307743	0.978615	0.978615
622	0.690009	0.304165	0.978615	0.978615
623	0.684034	0.298861	0.978615	0.978615
624	0.686524	0.302776	0.978615	0.978615
625	0.687724	0.326040	0.978615	0.978615
626	0.698639	0.315023	0.978615	0.978615
627	0.688572	0.319609	0.978615	0.978615
628	0.691379	0.322359	0.978616	0.978616
629	0.701861	0.317274	0.978617	0.978617
630	0.691945	0.301030	0.978617	0.978617
631	0.691122	0.317029	0.978618	0.978618
632	0.677159	0.327837	0.978620	0.978620
633	0.696388	0.304568	0.978621	0.978621
634	0.690179	0.302375	0.978623	0.978623
635	0.687197	0.305629	0.978624	0.978624
636	0.702083	0.315757	0.978626	0.978626
637	0.680980	0.320963	0.978628	0.978628
638	0.690089	0.312455	0.978630	0.978630
639	0.673260	0.309639	0.978632	0.978632
640	0.683280	0.315987	0.978634	0.978634
641	0.692738	0.298329	0.978637	0.978637
642	0.686303	0.317281	0.978639	0.978639
643	0.686804	0.329422	0.978642	0.978642
644	0.702024	0.322763	0.978644	0.978644
645	0.680707	0.296586	0.978647	0.978647
646	0.687946	0.296551	0.978650	0.978650
647	0.683940	0.309504	0.978653	0.978653
648	0.676510	0.318959	0.978656	0.978656
649	0.673355	0.306860	0.978658	0.978658
650	0.683724	0.330660	0.978661	0.978661
651	0.681239	0.307865	0.978664	0.978664
652	0.656342	0.325651	0.978667	0.978667
653	0.688978	0.319559	0.978670	0.978670
654	0.679431	0.337375	0.978673	0.978673
655	0.699842	0.302619	0.978676	0.978676
656	0.681719	0.302336	0.978679	0.978679
657	0.675005	0.323850	0.978682	0.978682
658	0.708247	0.318749	0.978685	0.978685
659	0.682582	0.306569	0.978687	0.978687
660	0.694224	0.317362	0.978690	0.978690
661	0.691360	0.328035	0.978693	0.978693
662	0.680546	0.331238	0.978695	0.978695
663	0.666806	0.314733	0.978697	0.978697
664	0.707251	0.340037	0.978700	0.978700
665	0.694470	0.320249	0.978702	0.978702
666	0.670263	0.300838	0.978704	0.978704
667	0.669732	0.307973	0.978705	0.978705
668	0.669396	0.335252	0.978707	0.978707
669	0.694912	0.312199	0.978708	0.978708
670	0.688527	0.336629	0.978709	0.978709
671	0.660060	0.311545	0.978710	0.978710
672	0.691331	0.321847	0.978711	0.978711
673	0.680053	0.327613	0.978712	0.978712
674	0.673420	0.316433	0.978712	0.978712
675	0.683100	0.310810	0.978712	0.978712
676	0.703086	0.309910	0.978712	0.978712
677	0.679962	0.332696	0.978711	0.978711
678	0.653604	0.312310	0.978711	0.978711
679	0.692793	0.341203	0.978710	0.978710
680	0.671187	0.308487	0.978708	0.978708
681	0.672816	0.339999	0.978706	0.978706
682	0.679351	0.338317	0.978704	0.978704
683	0.681074	0.329634	0.978702	0.978702
684	0.667617	0.307748	0.978699	0.978699
685	0.681905	0.310830	0.978696	0.978696
686	0.662749	0.320071	0.978693	0.978693
687	0.672364	0.313042	0.978689	0.978689
688	0.661267	0.339646	0.978684	0.978684
689	0.697926	0.329842	0.978680	0.978680
690	0.662797	0.341439	0.978675	0.978675
691	0.689225	0.306320	0.978669	0.978669
692	0.687844	0.313417	0.978663	0.978663
693	0.676847	0.322789	0.978657	0.978657
694	0.656323	0.332823	0.978650	0.978650
695	0.674970	0.324947	0.978643	0.978643
696	0.662302	0.313512	0.978635	0.978635
697	0.690055	0.301823	0.978627	0.978627
698	0.666099	0.320107	0.978619	0.978619
699	0.658986	0.320833	0.978610	0.978610
700	0.674415	0.333871	0.978600	0.978600
701	0.676319	0.339404	0.978590	0.978590
702	0.658959	0.364539	0.978580	0.978580
703	0.668147	0.330727	0.978569	0.978569
704	0.659681	0.330004	0.978557	0.978557
705	0.697956	0.336870	0.978545	0.978545
706	0.664544	0.317534	0.978533	0.978533
707	0.667138	0.324878	0.978520	0.978520
708	0.667101	0.364232	0.978507	0.978507
709	0.669015	0.346703	0.978493	0.978493
710	0.639950	0.325521	0.978479	0.978479
711	0.659115	0.353914	0.978464	0.978464
712	0.651310	0.321509	0.978449	0.978449
713	0.667161	0.334549	0.978433	0.978433
714	0.670797	0.320853	0.978417	0.978417
715	0.674861	0.347182	0.978400	0.978400
716	0.660119	0.299568	0.978383	0.978383
717	0.690711	0.307531	0.978365	0.978365
718	0.724015	0.342631	0.978347	0.978347
719	0.675309	0.339159	0.978329	0.978329
720	0.688981	0.357880	0.978310	0.978310
721	0.655844	0.320225	0.978290	0.978290
722	0.667292	0.298334	0.978270	0.978270
723	0.633814	0.314324	0.978250	0.978250
724	0.675848	0.335870	0.978230	0.978230
725	0.657475	0.344416	0.978208	0.978208
726	0.667203	0.294500	0.978187	0.978187
727	0.691349	0.320784	0.978165	0.978165
728	0.667177	0.302244	0.978143	0.978143
729	0.628424	0.313225	0.978121	0.978121
730	0.668583	0.320223	0.978098	0.978098
731	0.659902	0.326024	0.978075	0.978075
732	0.665770	0.292045	0.978051	0.978051
733	0.658874	0.343475	0.978027	0.978027
734	0.670963	0.318473	0.978003	0.978003
735	0.683401	0.357251	0.977979	0.977979
736	0.636064	0.343117	0.977954	0.977954
737	0.656704	0.302896	0.977930	0.977930
738	0.645040	0.338855	0.977905	0.977905
739	0.659988	0.323566	0.977880	0.977880
740	0.678281	0.323392	0.977854	0.977854
741	0.649970	0.353693	0.977829	0.977829
742	0.655418	0.311438	0.977803	0.977803
743	0.620818	0.330112	0.977777	0.977777
744	0.652154	0.314253	0.977752	0.977752
745	0.677055	0.296472	0.977726	0.977726
746	0.603084	0.322534	0.977700	0.977700
747	0.628475	0.343685	0.977674	0.977674
748	0.632055	0.331104	0.977648	0.977648
749	0.628235	0.311406	0.977622	0.977622
750	0.660661	0.324493	0.977596	0.977596
751	0.620725	0.305708	0.977570	0.977570
752	0.624953	0.345154	0.977544	0.977544
753	0.693155	0.306852	0.977519	0.977519
754	0.664528	0.358121	0.977493	0.977493
755	0.673530	0.307932	0.977468	0.977468
756	0.655806	0.339502	0.977443	0.977443
757	0.621364	0.290219	0.977418	0.977418
758	0.676167	0.329857	0.977393	0.977393
759	0.651674	0.358471	0.977369	0.977369
760	0.656530	0.369391	0.977345	0.977345
761	0.645741	0.330567	0.977321	0.977321
762	0.628439	0.301090	0.977297	0.977297
763	0.652693	0.375726	0.977274	0.977274
764	0.627591	0.338075	0.977251	0.977251
765	0.600263	0.342015	0.977229	0.977229
766	0.618295	0.332641	0.977207	0.977207
767	0.652968	0.321279	0.977185	0.977185
768	0.641210	0.339319	0.977164	0.977164
769	0.638450	0.343288	0.977144	0.977144
770	0.618932	0.342359	0.977124	0.977124
771	0.684099	0.343931	0.977104	0.977104
772	0.682299	0.352402	0.977085	0.977085
773	0.623926	0.329134	0.977066	0.977066
774	0.660133	0.348790	0.977049	0.977049
775	0.627761	0.314336	0.977031	0.977031
776	0.632874	0.351082	0.977015	0.977015
777	0.706424	0.318903	0.976999	0.976999
778	0.669285	0.372436	0.976983	0.976983
779	0.671307	0.363097	0.976969	0.976969
780	0.651673	0.387649	0.976954	0.976954
781	0.592168	0.310687	0.976941	0.976941
782	0.712113	0.286353	0.976928	0.976928
783	0.697354	0.331459	0.976916	0.976916
784	0.640548	0.357293	0.976905	0.976905
785	0.642780	0.382049	0.976894	0.976894
786	0.737073	0.376452	0.976884	0.976884
787	0.660502	0.313147	0.976875	0.976875
788	0.614773	0.302326	0.976866	0.976866
789	0.714198	0.405755	0.976858	0.976858
790	0.699470	0.382823	0.976851	0.976851
791	0.694466	0.358099	0.976844	0.976844
792	0.683946	0.382931	0.976838	0.976838
793	0.615354	0.337719	0.976833	0.976833
794	0.636659	0.290860	0.976828	0.976828
795	0.624219	0.355577	0.976824	0.976824
796	0.664901	0.335085	0.976820	0.976820
797	0.638244	0.338627	0.976817	0.976817
798	0.629637	0.396305	0.976815	0.976815
799	0.628696	0.425591	0.976813	0.976813
800	0.624295	0.403517	0.976811	0.976811
801	0.674333	0.325389	0.976810	0.976810
802	0.633473	0.334768	0.976808	0.976808
803	0.583201	0.350436	0.976808	0.976808
804	0.661228	0.366440	0.976807	0.976807
805	0.640578	0.330353	0.976807	0.976807
806	0.628739	0.344715	0.976807	0.976807
807	0.627616	0.354703	0.976807	0.976807
808	0.591777	0.290548	0.976806	0.976806
809	0.677594	0.358919	0.976806	0.976806
810	0.693324	0.352018	0.976805	0.976805
811	0.588053	0.383728	0.976805	0.976805
812	0.598544	0.357824	0.976803	0.976803
813	0.666603	0.302380	0.976802	0.976802
814	0.568429	0.360697	0.976799	0.976799
815	0.644486	0.287260	0.976796	0.976796
816	0.643116	0.320370	0.976792	0.976792
817	0.691002	0.309215	0.976788	0.976788
818	0.705650	0.361362	0.976782	0.976782
819	0.652891	0.467061	0.976775	0.976775
820	0.687259	0.308534	0.976766	0.976766
821	0.660742	0.413203	0.976756	0.976756
822	0.587074	0.363636	0.976744	0.976744
823	0.671375	0.352993	0.976731	0.976731
824	0.665198	0.356093	0.976715	0.976715
825	0.685238	0.365875	0.976697	0.976697
826	0.585783	0.379079	0.976677	0.976677
827	0.629933	0.319277	0.976654	0.976654
828	0.698882	0.356992	0.976629	0.976629
829	0.650566	0.353418	0.976600	0.976600
830	0.586448	0.245791	0.976568	0.976568
831	0.660784	0.378049	0.976533	0.976533
832	0.708530	0.253482	0.976493	0.976493
833	0.626859	0.329480	0.976450	0.976450
834	0.585714	0.250820	0.976402	0.976402
835	0.593654	0.403748	0.976350	0.976350
836	0.684919	0.309021	0.976293	0.976293
837	0.698082	0.332599	0.976231	0.976231
838	0.600288	0.151448	0.976163	0.976163
839	0.806492	0.502273	0.976089	0.976089
840	0.528464	0.190244	0.976010	0.976010
841	0.734003	0.328729	0.975923	0.975923
842	0.636091	0.285714	0.975830	0.975830
843	0.636698	0.332180	0.975730	0.975730
844	0.558250	0.328063	0.975622	0.975622
845	0.743701	0.430279	0.975506	0.975506
846	0.647967	0.301587	0.975381	0.975381
847	0.718338	0.296875	0.975247	0.975247
848	0.750274	0.274038	0.975104	0.975104
849	0.755082	0.733813	0.974952	0.974952
850	0.565070	0.609929	0.974789	0.974789
